# wavelength[angstrom] transmittance
 7002.7  0.0007
 7007.0  0.0009
 7011.4  0.0011
 7015.8  0.0014
 7020.1  0.0016
 7024.5  0.0017
 7028.9  0.0021
 7033.2  0.0023
 7037.6  0.0026
 7042.0  0.0030
 7046.3  0.0035
 7050.7  0.0043
 7055.1  0.0053
 7059.4  0.0068
 7063.8  0.0090
 7068.2  0.0127
 7072.6  0.0183
 7076.9  0.0273
 7081.3  0.0411
 7085.7  0.0623
 7090.0  0.0929
 7094.4  0.1343
 7098.8  0.1870
 7103.2  0.2501
 7107.5  0.3216
 7111.9  0.3999
 7116.3  0.4833
 7120.7  0.5696
 7125.0  0.6556
 7129.4  0.7357
 7133.8  0.8039
 7138.2  0.8560
 7142.5  0.8911
 7146.9  0.9114
 7151.3  0.9213
 7155.7  0.9248
 7160.1  0.9261
 7164.4  0.9270
 7168.8  0.9274
 7173.2  0.9264
 7177.6  0.9235
 7182.0  0.9177
 7186.3  0.9074
 7190.7  0.8906
 7195.1  0.8662
 7199.5  0.8345
 7203.9  0.7942
 7208.2  0.7450
 7212.6  0.6880
 7217.0  0.6234
 7221.4  0.5500
 7225.8  0.4683
 7230.2  0.3822
 7234.5  0.2976
 7238.9  0.2211
 7243.3  0.1575
 7247.7  0.1090
 7252.1  0.0746
 7256.5  0.0512
 7260.8  0.0360
 7265.2  0.0256
 7269.6  0.0185
 7274.0  0.0136
 7278.4  0.0101
 7282.8  0.0077
 7287.2  0.0060
 7291.6  0.0047
 7296.0  0.0039
 7300.3  0.0032
 7304.7  0.0025
 7309.1  0.0022
 7313.5  0.0016
 7317.9  0.0013
 7322.3  0.0009
 7326.7  0.0006
 7331.1  0.0005
 7335.5  0.0003
 7339.9  0.0002
 7344.2  0.0001
 7348.6  0.0001
 7353.0  0.0000
 7357.4  0.0000
 7361.8  0.0000
 7366.2  0.0000
 7370.6  0.0000
 7375.0  0.0000
 7379.4  0.0000
 7383.8  0.0000
 7388.2  0.0000
 7392.6  0.0000
 7397.0  0.0000
