# wavelength[angstrom] transmittance
 4503.8  0.0011
 4507.9  0.0010
 4512.1  0.0010
 4516.2  0.0012
 4520.3  0.0010
 4524.4  0.0006
 4528.6  0.0006
 4532.7  0.0008
 4536.8  0.0011
 4540.9  0.0011
 4545.1  0.0010
 4549.2  0.0008
 4553.3  0.0010
 4557.4  0.0012
 4561.6  0.0012
 4565.7  0.0013
 4569.8  0.0012
 4574.0  0.0010
 4578.1  0.0009
 4582.2  0.0009
 4586.4  0.0009
 4590.5  0.0009
 4594.6  0.0009
 4598.8  0.0008
 4602.9  0.0006
 4607.0  0.0006
 4611.2  0.0007
 4615.3  0.0007
 4619.4  0.0007
 4623.6  0.0007
 4627.7  0.0005
 4631.9  0.0005
 4636.0  0.0008
 4640.1  0.0012
 4644.3  0.0013
 4648.4  0.0010
 4652.5  0.0006
 4656.7  0.0005
 4660.8  0.0005
 4665.0  0.0006
 4669.1  0.0005
 4673.3  0.0005
 4677.4  0.0007
 4681.5  0.0009
 4685.7  0.0010
 4689.8  0.0007
 4694.0  0.0003
 4698.1  0.0004
 4702.3  0.0006
 4706.4  0.0007
 4710.5  0.0004
 4714.7  0.0001
 4718.8  0.0003
 4723.0  0.0007
 4727.1  0.0009
 4731.3  0.0006
 4735.4  0.0003
 4739.6  0.0003
 4743.7  0.0005
 4747.9  0.0007
 4752.0  0.0007
 4756.2  0.0006
 4760.3  0.0006
 4764.5  0.0004
 4768.6  0.0004
 4772.8  0.0006
 4776.9  0.0009
 4781.1  0.0008
 4785.3  0.0005
 4789.4  0.0003
 4793.6  0.0005
 4797.7  0.0007
 4801.9  0.0008
 4806.0  0.0008
 4810.2  0.0007
 4814.3  0.0005
 4818.5  0.0003
 4822.7  0.0004
 4826.8  0.0005
 4831.0  0.0007
 4835.1  0.0006
 4839.3  0.0006
 4843.5  0.0006
 4847.6  0.0006
 4851.8  0.0006
 4855.9  0.0005
 4860.1  0.0003
 4864.3  0.0001
 4868.4  0.0001
 4872.6  0.0003
 4876.8  0.0005
 4880.9  0.0006
 4885.1  0.0005
 4889.3  0.0004
 4893.4  0.0004
 4897.6  0.0004
 4901.8  0.0003
 4905.9  0.0003
 4910.1  0.0004
 4914.3  0.0004
 4918.4  0.0003
 4922.6  0.0002
 4926.8  0.0002
 4930.9  0.0001
 4935.1  0.0001
 4939.3  0.0001
 4943.5  0.0002
 4947.6  0.0004
 4951.8  0.0004
 4956.0  0.0002
 4960.1  0.0001
 4964.3  0.0000
 4968.5  0.0002
 4972.7  0.0004
 4976.8  0.0005
 4981.0  0.0004
 4985.2  0.0003
 4989.4  0.0004
 4993.5  0.0005
 4997.7  0.0005
 5001.9  0.0003
 5006.1  0.0002
 5010.3  0.0003
 5014.4  0.0005
 5018.6  0.0006
 5022.8  0.0005
 5027.0  0.0004
 5031.1  0.0004
 5035.3  0.0004
 5039.5  0.0004
 5043.7  0.0003
 5047.9  0.0003
 5052.1  0.0004
 5056.2  0.0005
 5060.4  0.0005
 5064.6  0.0004
 5068.8  0.0004
 5073.0  0.0005
 5077.2  0.0005
 5081.4  0.0005
 5085.5  0.0005
 5089.7  0.0005
 5093.9  0.0005
 5098.1  0.0005
 5102.3  0.0006
 5106.5  0.0006
 5110.7  0.0006
 5114.9  0.0004
 5119.0  0.0003
 5123.2  0.0004
 5127.4  0.0007
 5131.6  0.0009
 5135.8  0.0009
 5140.0  0.0008
 5144.2  0.0007
 5148.4  0.0008
 5152.6  0.0011
 5156.8  0.0014
 5161.0  0.0015
 5165.2  0.0015
 5169.4  0.0016
 5173.6  0.0019
 5177.7  0.0031
 5181.9  0.0064
 5186.1  0.0129
 5190.3  0.0232
 5194.5  0.0391
 5198.7  0.0649
 5202.9  0.1070
 5207.1  0.1708
 5211.3  0.2559
 5215.5  0.3558
 5219.7  0.4627
 5223.9  0.5719
 5228.1  0.6808
 5232.3  0.7830
 5236.5  0.8666
 5240.7  0.9217
 5244.9  0.9481
 5249.1  0.9557
 5253.3  0.9557
 5257.6  0.9537
 5261.8  0.9503
 5266.0  0.9442
 5270.2  0.9338
 5274.4  0.9153
 5278.6  0.8834
 5282.8  0.8333
 5287.0  0.7636
 5291.2  0.6771
 5295.4  0.5796
 5299.6  0.4757
 5303.8  0.3678
 5308.0  0.2594
 5312.2  0.1594
 5316.5  0.0807
 5320.7  0.0317
 5324.9  0.0097
 5329.1  0.0038
 5333.3  0.0034
 5337.5  0.0032
 5341.7  0.0024
 5345.9  0.0017
 5350.2  0.0016
 5354.4  0.0016
 5358.6  0.0015
 5362.8  0.0012
 5367.0  0.0009
 5371.2  0.0008
 5375.4  0.0007
 5379.7  0.0006
 5383.9  0.0006
 5388.1  0.0007
 5392.3  0.0007
 5396.5  0.0006
 5400.8  0.0005
 5405.0  0.0006
 5409.2  0.0006
 5413.4  0.0005
 5417.6  0.0005
 5421.9  0.0006
 5426.1  0.0007
 5430.3  0.0006
 5434.5  0.0004
 5438.7  0.0004
 5443.0  0.0005
 5447.2  0.0005
 5451.4  0.0004
 5455.6  0.0003
 5459.9  0.0004
 5464.1  0.0004
 5468.3  0.0004
 5472.5  0.0003
 5476.8  0.0002
 5481.0  0.0002
 5485.2  0.0002
 5489.4  0.0002
 5493.7  0.0002
 5497.9  0.0003
 5502.1  0.0003
 5506.4  0.0004
 5510.6  0.0004
 5514.8  0.0003
 5519.1  0.0003
 5523.3  0.0004
 5527.5  0.0004
 5531.7  0.0004
 5536.0  0.0004
 5540.2  0.0004
 5544.4  0.0005
 5548.7  0.0005
 5552.9  0.0005
 5557.1  0.0004
 5561.4  0.0003
 5565.6  0.0003
 5569.9  0.0004
 5574.1  0.0005
 5578.3  0.0005
 5582.6  0.0005
 5586.8  0.0005
 5591.0  0.0005
 5595.3  0.0004
 5599.5  0.0003
 5603.8  0.0002
 5608.0  0.0003
 5612.2  0.0004
 5616.5  0.0004
 5620.7  0.0002
 5625.0  0.0001
 5629.2  0.0003
 5633.4  0.0004
 5637.7  0.0004
 5641.9  0.0003
 5646.2  0.0002
 5650.4  0.0002
 5654.7  0.0004
 5658.9  0.0005
 5663.1  0.0004
 5667.4  0.0002
 5671.6  0.0002
 5675.9  0.0004
 5680.1  0.0005
 5684.4  0.0004
 5688.6  0.0003
 5692.9  0.0003
 5697.1  0.0003
 5701.4  0.0003
 5705.6  0.0004
 5709.9  0.0004
 5714.1  0.0004
 5718.4  0.0006
 5722.6  0.0007
 5726.9  0.0006
 5731.1  0.0006
 5735.4  0.0008
 5739.6  0.0008
 5743.9  0.0007
 5748.1  0.0007
 5752.4  0.0008
 5756.6  0.0007
 5760.9  0.0007
 5765.2  0.0007
 5769.4  0.0007
 5773.7  0.0007
 5777.9  0.0006
 5782.2  0.0007
 5786.4  0.0009
 5790.7  0.0011
 5794.9  0.0010
 5799.2  0.0007
 5803.5  0.0006
 5807.7  0.0007
 5812.0  0.0008
 5816.2  0.0010
 5820.5  0.0010
 5824.8  0.0009
 5829.0  0.0008
 5833.3  0.0008
 5837.5  0.0009
 5841.8  0.0010
 5846.1  0.0011
 5850.3  0.0012
 5854.6  0.0012
 5858.9  0.0011
 5863.1  0.0011
 5867.4  0.0013
 5871.7  0.0016
 5875.9  0.0018
 5880.2  0.0016
 5884.5  0.0013
 5888.7  0.0011
 5893.0  0.0011
 5897.3  0.0012
 5901.5  0.0012
 5905.8  0.0012
 5910.1  0.0014
 5914.3  0.0015
 5918.6  0.0014
 5922.9  0.0014
 5927.1  0.0016
 5931.4  0.0019
 5935.7  0.0020
 5940.0  0.0019
 5944.2  0.0018
 5948.5  0.0017
 5952.8  0.0016
 5957.0  0.0019
 5961.3  0.0023
 5965.6  0.0027
 5969.9  0.0028
 5974.1  0.0027
 5978.4  0.0026
 5982.7  0.0024
 5987.0  0.0022
 5991.3  0.0021
 5995.5  0.0023
 5999.8  0.0027
